SpectraSuite Data File
++++++++++++++++++++++++++++++++++++
Date: Thu Mar 23 14:06:01 EDT 2017
User: Administrator
Dark Spectrum Present: Yes
Reference Spectrum Present: No
Number of Sampled Component Spectra: 1
Spectrometers: SB2+H01071
Integration Time (usec): 5000000 (SB2+H01071)
Spectra Averaged: 1 (SB2+H01071)
Boxcar Smoothing: 3 (SB2+H01071)
Correct for Electrical Dark: No (SB2+H01071)
Strobe/Lamp Enabled: No (SB2+H01071)
Correct for Detector Non-linearity: No (SB2+H01071)
Correct for Stray Light: No (SB2+H01071)
Number of Pixels in Processed Spectrum: 2048
>>>>>Begin Processed Spectral Data<<<<<
191.06	13.56
191.43	13.56
191.81	13.56
192.19	-6.78
192.56	-7.43
192.94	-5.49
193.31	-10.33
193.69	-17.11
194.07	-4.20
194.44	-9.04
194.82	-7.43
195.19	-21.63
195.57	-17.43
195.95	-14.85
196.32	-11.62
196.70	-19.69
197.07	-20.98
197.45	-20.98
197.83	-4.52
198.20	-19.05
198.58	-13.56
198.95	-8.72
199.33	10.65
199.70	-4.52
200.08	9.04
200.46	8.39
200.83	30.35
201.21	16.46
201.58	18.72
201.96	9.04
202.33	19.37
202.71	1.29
203.09	-7.10
203.46	-12.27
203.84	-16.46
204.21	-19.69
204.59	-24.54
204.96	-14.85
205.34	-0.32
205.71	10.65
206.09	8.72
206.46	13.24
206.84	10.01
207.21	13.24
207.59	15.82
207.96	13.24
208.34	8.39
208.71	3.87
209.09	20.02
209.46	30.02
209.84	16.79
210.21	12.91
210.59	11.30
210.96	12.91
211.34	4.84
211.71	-12.91
212.09	-27.76
212.46	-9.68
212.84	-5.17
213.21	-6.78
213.59	-5.81
213.96	3.55
214.34	16.79
214.71	24.21
215.08	23.89
215.46	-3.55
215.83	-12.27
216.21	-5.81
216.58	-20.34
216.96	-24.86
217.33	-46.49
217.70	-48.42
218.08	-30.35
218.45	-23.89
218.83	-13.88
219.20	2.58
219.58	-0.32
219.95	20.34
220.32	12.59
220.70	14.85
221.07	25.18
221.45	-7.10
221.82	-11.62
222.19	-10.98
222.57	2.91
222.94	-1.94
223.32	-7.43
223.69	-10.98
224.06	4.84
224.44	22.60
224.81	25.18
225.18	29.05
225.56	37.13
225.93	43.58
226.31	27.76
226.68	17.76
227.05	-11.94
227.43	-24.86
227.80	-40.35
228.17	-45.20
228.55	-56.82
228.92	-31.64
229.29	-25.83
229.67	-15.50
230.04	4.84
230.41	-5.81
230.79	5.49
231.16	35.83
231.53	20.34
231.91	18.08
232.28	8.39
232.65	-2.58
233.03	-5.49
233.40	-29.38
233.77	-59.08
234.15	-50.04
234.52	-47.13
234.89	-29.05
235.26	-17.11
235.64	-19.05
236.01	-3.23
236.38	20.98
236.76	18.40
237.13	36.48
237.50	29.38
237.87	20.34
238.25	28.41
238.62	26.47
238.99	7.10
239.36	8.72
239.74	-11.62
240.11	-20.02
240.48	-7.75
240.85	-0.65
241.23	0.97
241.60	4.20
241.97	6.78
242.34	14.53
242.72	13.24
243.09	11.94
243.46	-3.87
243.83	-12.91
244.20	8.72
244.58	9.04
244.95	10.65
245.32	7.10
245.69	-8.07
246.07	0.97
246.44	3.23
246.81	-21.95
247.18	-23.89
247.55	-29.70
247.92	-15.50
248.30	-3.55
248.67	1.94
249.04	14.53
249.41	10.01
249.78	-0.65
250.16	-2.58
250.53	-2.58
250.90	-16.14
251.27	-29.70
251.64	-31.31
252.01	-30.99
252.39	-15.82
252.76	-14.20
253.13	-30.99
253.50	-24.86
253.87	-17.76
254.24	-22.60
254.61	-10.65
254.98	-12.59
255.36	-14.85
255.73	12.27
256.10	15.17
256.47	19.37
256.84	18.08
257.21	-1.29
257.58	-6.46
257.95	-8.07
258.33	-23.24
258.70	-10.98
259.07	0.32
259.44	0.32
259.81	26.47
260.18	33.57
260.55	40.68
260.92	47.78
261.29	37.13
261.66	15.17
262.03	29.38
262.40	15.50
262.77	20.34
263.15	16.46
263.52	9.36
263.89	17.11
264.26	25.50
264.63	19.69
265.00	31.64
265.37	20.02
265.74	20.34
266.11	30.35
266.48	17.11
266.85	16.79
267.22	13.88
267.59	3.55
267.96	6.46
268.33	8.39
268.70	0.32
269.07	-1.94
269.44	9.36
269.81	12.91
270.18	26.15
270.55	29.05
270.92	26.47
271.29	20.98
271.66	23.89
272.03	20.98
272.40	18.08
272.77	9.68
273.14	-14.53
273.51	-19.37
273.88	-13.56
274.25	-4.52
274.62	-7.10
274.99	-15.17
275.36	-17.76
275.73	-1.61
276.10	-6.46
276.47	-9.68
276.84	-18.08
277.21	-17.76
277.58	-17.11
277.94	-23.57
278.31	-44.23
278.68	-42.94
279.05	-44.23
279.42	-35.51
279.79	-42.94
280.16	-48.10
280.53	-26.80
280.90	-17.76
281.27	3.55
281.64	3.23
282.01	-11.30
282.37	-3.55
282.74	-14.20
283.11	-21.63
283.48	-13.24
283.85	-24.54
284.22	-16.14
284.59	-9.04
284.96	4.20
285.33	25.18
285.69	40.03
286.06	40.03
286.43	25.83
286.80	12.91
287.17	10.33
287.54	11.62
287.91	13.24
288.27	-7.43
288.64	-10.98
289.01	-6.46
289.38	-0.65
289.75	-3.87
290.12	-25.18
290.48	-16.79
290.85	-5.17
291.22	-1.94
291.59	5.81
291.96	1.94
292.33	-12.91
292.69	-4.20
293.06	-20.98
293.43	-23.57
293.80	-16.46
294.17	-14.20
294.53	-14.85
294.90	1.29
295.27	-15.50
295.64	-17.43
296.01	-25.18
296.37	-18.40
296.74	-16.79
297.11	-5.81
297.48	-2.26
297.84	3.55
298.21	10.33
298.58	16.46
298.95	-0.65
299.31	-3.55
299.68	9.68
300.05	14.20
300.42	22.60
300.78	19.37
301.15	14.20
301.52	19.69
301.89	17.43
302.25	13.24
302.62	13.24
302.99	23.57
303.35	31.96
303.72	29.70
304.09	34.54
304.46	41.65
304.82	28.09
305.19	32.28
305.56	22.92
305.92	12.91
306.29	16.46
306.66	16.79
307.02	20.98
307.39	32.28
307.76	30.99
308.12	36.48
308.49	41.97
308.86	33.57
309.23	35.51
309.59	15.17
309.96	1.61
310.32	0.65
310.69	-0.32
311.06	0.00
311.42	11.94
311.79	8.07
312.16	19.05
312.52	18.40
312.89	14.20
313.26	0.97
313.62	17.11
313.99	-10.33
314.35	-14.20
314.72	-11.62
315.09	9.68
315.45	25.83
315.82	26.80
316.19	19.05
316.55	47.46
316.92	58.43
317.28	57.79
317.65	59.08
318.02	32.61
318.38	39.39
318.75	41.32
319.11	26.80
319.48	9.04
319.84	11.62
320.21	-2.26
320.58	16.46
320.94	19.05
321.31	9.36
321.67	14.20
322.04	30.02
322.40	21.95
322.77	8.39
323.13	-16.46
323.50	-24.86
323.86	-26.15
324.23	-30.99
324.60	-42.61
324.96	-37.13
325.33	-45.20
325.69	-43.91
326.06	-33.25
326.42	-18.40
326.79	-14.20
327.15	13.88
327.52	2.58
327.88	19.69
328.25	37.77
328.61	39.71
328.98	32.28
329.34	15.50
329.71	-19.05
330.07	-13.56
330.44	-16.14
330.80	-29.70
331.16	-33.57
331.53	-43.91
331.89	-41.00
332.26	-37.77
332.62	-31.31
332.99	-37.77
333.35	-36.48
333.72	-50.04
334.08	-49.07
334.45	-37.45
334.81	-32.28
335.17	-43.91
335.54	-38.09
335.90	-25.18
336.27	-19.05
336.63	-12.91
337.00	-3.87
337.36	-13.56
337.72	-12.27
338.09	-0.97
338.45	2.26
338.82	13.88
339.18	8.72
339.54	12.91
339.91	26.15
340.27	36.80
340.63	17.11
341.00	8.72
341.36	-2.58
341.73	8.39
342.09	-18.72
342.45	-29.38
342.82	-38.09
343.18	-18.72
343.54	-19.37
343.91	-28.41
344.27	-29.70
344.63	-4.52
345.00	2.91
345.36	-5.17
345.72	-17.76
346.09	-22.28
346.45	-8.39
346.81	-32.93
347.18	-36.80
347.54	-32.28
347.90	-28.41
348.27	-43.91
348.63	-35.83
348.99	-20.98
349.36	14.20
349.72	7.75
350.08	14.20
350.45	9.36
350.81	25.83
351.17	9.68
351.53	0.32
351.90	-25.83
352.26	-32.93
352.62	-43.91
352.98	-27.76
353.35	-19.05
353.71	-24.86
354.07	-44.23
354.44	-29.38
354.80	-27.12
355.16	-34.87
355.52	-35.19
355.88	-38.42
356.25	-17.76
356.61	5.17
356.97	5.17
357.33	30.35
357.70	42.61
358.06	47.78
358.42	37.77
358.78	41.00
359.15	36.48
359.51	25.83
359.87	20.34
360.23	18.08
360.59	10.98
360.95	21.63
361.32	11.62
361.68	6.78
362.04	-4.52
362.40	-18.72
362.76	-29.38
363.13	-11.62
363.49	-10.98
363.85	-9.68
364.21	-12.59
364.57	5.49
364.93	12.91
365.30	34.87
365.66	15.17
366.02	10.33
366.38	19.05
366.74	13.24
367.10	8.39
367.46	7.75
367.83	-7.10
368.19	-9.36
368.55	2.58
368.91	-10.01
369.27	-12.91
369.63	-20.02
369.99	-14.85
370.35	-25.18
370.71	-19.05
371.08	-31.96
371.44	-30.99
371.80	-6.46
372.16	14.20
372.52	2.91
372.88	9.68
373.24	6.13
373.60	0.65
373.96	3.23
374.32	-2.58
374.68	-14.53
375.04	-12.27
375.40	8.07
375.76	14.53
376.13	20.02
376.49	24.86
376.85	7.75
377.21	4.20
377.57	1.61
377.93	-6.78
378.29	-13.88
378.65	-15.82
379.01	-13.56
379.37	-3.87
379.73	3.87
380.09	-3.23
380.45	-9.68
380.81	10.98
381.17	9.04
381.53	-0.32
381.89	-6.13
382.25	-27.12
382.61	-7.43
382.97	-14.53
383.33	-27.12
383.69	-28.41
384.05	-14.53
384.41	-5.81
384.77	15.50
385.13	1.94
385.49	20.34
385.85	15.17
386.20	25.50
386.56	10.33
386.92	-6.78
387.28	-4.52
387.64	2.58
388.00	-27.44
388.36	-24.54
388.72	-32.61
389.08	-27.76
389.44	-22.28
389.80	-35.51
390.16	-40.03
390.52	-23.57
390.88	-19.05
391.23	-15.17
391.59	-21.31
391.95	-18.40
392.31	-12.91
392.67	-14.53
393.03	-7.43
393.39	-31.64
393.75	-29.38
394.11	-12.27
394.46	-24.21
394.82	-25.50
395.18	-18.72
395.54	-17.43
395.90	-12.59
396.26	-22.60
396.62	-34.54
396.97	-18.40
397.33	-21.31
397.69	-23.24
398.05	-38.42
398.41	-19.05
398.77	-8.72
399.12	-5.17
399.48	13.24
399.84	23.89
400.20	28.09
400.56	25.18
400.91	16.79
401.27	2.58
401.63	7.75
401.99	-12.59
402.35	-10.01
402.70	-6.78
403.06	10.01
403.42	13.56
403.78	17.43
404.14	10.98
404.49	2.26
404.85	-1.29
405.21	-22.28
405.57	-18.08
405.92	-26.47
406.28	-23.57
406.64	-35.51
407.00	-34.22
407.35	-48.42
407.71	-41.00
408.07	-44.87
408.43	-30.35
408.78	-30.35
409.14	-12.27
409.50	-2.26
409.85	7.75
410.21	11.30
410.57	8.07
410.93	6.46
411.28	-3.23
411.64	-14.85
412.00	-6.46
412.35	-13.56
412.71	-22.28
413.07	-25.50
413.42	-55.85
413.78	-46.49
414.14	-46.49
414.49	-51.65
414.85	-59.72
415.21	-49.39
415.56	-39.71
415.92	-18.08
416.28	-23.57
416.63	4.84
416.99	11.94
417.35	40.03
417.70	27.76
418.06	16.14
418.42	4.20
418.77	23.57
419.13	-0.97
419.48	-21.31
419.84	-20.66
420.20	-15.17
420.55	-8.39
420.91	1.61
421.27	-10.33
421.62	-8.07
421.98	-1.29
422.33	-18.72
422.69	-15.82
423.05	-16.79
423.40	0.32
423.76	11.62
424.11	36.80
424.47	32.93
424.82	33.90
425.18	33.90
425.54	31.31
425.89	26.15
426.25	19.69
426.60	-1.29
426.96	-6.46
427.31	-14.20
427.67	-15.17
428.02	-22.28
428.38	-39.39
428.73	-41.97
429.09	-42.94
429.44	-15.50
429.80	-14.53
430.15	-9.36
430.51	-4.20
430.86	-7.75
431.22	-1.29
431.57	-10.98
431.93	-18.72
432.28	-6.13
432.64	-6.13
432.99	-5.17
433.35	6.46
433.70	-3.87
434.06	-11.94
434.41	-33.57
434.77	-37.45
435.12	-45.52
435.48	-58.76
435.83	-57.46
436.19	-41.32
436.54	-10.98
436.89	5.49
437.25	-6.46
437.60	-12.27
437.96	-4.84
438.31	-11.94
438.67	-21.31
439.02	-36.80
439.37	-57.14
439.73	-42.29
440.08	-34.54
440.44	-30.02
440.79	-25.18
441.15	-24.21
441.50	-36.16
441.85	-18.40
442.21	-19.69
442.56	-29.05
442.91	-32.93
443.27	-34.54
443.62	-28.09
443.98	0.00
444.33	9.68
444.68	12.59
445.04	20.98
445.39	26.80
445.74	36.48
446.10	28.73
446.45	4.52
446.80	-13.56
447.16	-18.40
447.51	-2.91
447.86	6.46
448.22	-8.72
448.57	-8.39
448.92	2.91
449.28	12.59
449.63	1.61
449.98	-22.92
450.34	-24.21
450.69	-21.31
451.04	-9.68
451.40	-10.98
451.75	-18.72
452.10	-16.46
452.45	3.23
452.81	-2.26
453.16	5.81
453.51	-11.30
453.86	-3.55
454.22	-10.01
454.57	-10.98
454.92	-32.61
455.27	-41.65
455.63	-45.52
455.98	-32.28
456.33	-43.58
456.68	-34.22
457.04	-32.28
457.39	-28.73
457.74	-18.08
458.09	-30.02
458.45	-47.46
458.80	-33.25
459.15	-22.28
459.50	-8.07
459.85	11.62
460.21	20.02
460.56	26.47
460.91	29.05
461.26	23.89
461.61	15.17
461.97	12.91
462.32	0.97
462.67	2.58
463.02	7.75
463.37	8.72
463.72	-1.94
464.08	-2.91
464.43	-10.98
464.78	11.62
465.13	22.60
465.48	23.89
465.83	43.91
466.18	49.39
466.54	57.14
466.89	47.46
467.24	30.02
467.59	18.08
467.94	21.95
468.29	-2.58
468.64	3.87
468.99	-5.49
469.34	-0.32
469.70	-6.78
470.05	-24.21
470.40	-26.15
470.75	-16.79
471.10	-37.45
471.45	-27.12
471.80	-14.85
472.15	-5.81
472.50	-12.91
472.85	-23.57
473.20	-11.30
473.55	10.33
473.90	-1.94
474.25	3.55
474.61	2.91
474.96	7.43
475.31	42.61
475.66	25.83
476.01	25.83
476.36	39.71
476.71	39.39
477.06	29.38
477.41	39.06
477.76	20.34
478.11	20.34
478.46	-2.26
478.81	-21.63
479.16	-24.86
479.51	-25.18
479.86	-19.69
480.21	-17.43
480.56	-20.02
480.91	-10.65
481.26	-3.55
481.61	-7.43
481.96	19.05
482.31	13.24
482.66	11.94
483.00	14.20
483.35	20.66
483.70	22.92
484.05	27.12
484.40	11.94
484.75	13.88
485.10	-7.10
485.45	-1.61
485.80	-2.91
486.15	24.86
486.50	32.61
486.85	34.54
487.20	32.93
487.55	33.57
487.89	28.73
488.24	38.42
488.59	11.30
488.94	3.87
489.29	-4.84
489.64	3.87
489.99	7.75
490.34	5.81
490.68	-1.29
491.03	-10.65
491.38	-12.91
491.73	-3.55
492.08	-10.98
492.43	-16.46
492.78	-1.29
493.12	-2.26
493.47	20.34
493.82	16.46
494.17	3.87
494.52	4.20
494.87	22.60
495.21	33.57
495.56	36.48
495.91	23.89
496.26	19.69
496.61	32.61
496.95	18.40
497.30	21.63
497.65	-3.87
498.00	0.32
498.35	8.07
498.69	14.20
499.04	12.91
499.39	23.24
499.74	9.68
500.08	21.95
500.43	26.15
500.78	24.21
501.13	35.51
501.48	26.15
501.82	33.90
502.17	28.09
502.52	14.20
502.86	-7.43
503.21	-21.95
503.56	-38.42
503.91	-29.05
504.25	-33.57
504.60	-31.64
504.95	-21.95
505.30	-5.17
505.64	2.91
505.99	18.08
506.34	17.43
506.68	18.08
507.03	23.57
507.38	27.76
507.72	25.18
508.07	20.34
508.42	12.59
508.76	19.05
509.11	34.87
509.46	37.13
509.80	39.71
510.15	15.50
510.50	23.89
510.84	24.21
511.19	10.33
511.54	-2.58
511.88	-5.17
512.23	-3.23
512.57	0.65
512.92	3.87
513.27	20.66
513.61	24.54
513.96	11.30
514.31	13.24
514.65	10.01
515.00	25.83
515.34	25.83
515.69	-1.29
516.03	-3.23
516.38	8.39
516.73	23.24
517.07	19.69
517.42	16.46
517.76	14.20
518.11	18.40
518.45	25.50
518.80	20.34
519.15	18.40
519.49	33.57
519.84	35.51
520.18	25.83
520.53	29.05
520.87	30.99
521.22	29.38
521.56	2.26
521.91	-8.07
522.25	-1.61
522.60	15.82
522.94	9.68
523.29	-0.32
523.63	9.68
523.98	42.94
524.32	25.18
524.67	16.14
525.01	8.07
525.36	17.43
525.70	17.76
526.05	2.91
526.39	-18.40
526.74	-2.91
527.08	-12.27
527.43	-20.02
527.77	-22.28
528.12	-27.44
528.46	-22.60
528.80	-13.56
529.15	-9.36
529.49	3.87
529.84	18.08
530.18	16.14
530.53	23.89
530.87	28.09
531.21	28.09
531.56	23.57
531.90	19.37
532.25	-5.49
532.59	-13.88
532.93	-10.65
533.28	-12.59
533.62	-20.02
533.97	-27.44
534.31	-28.09
534.65	-10.01
535.00	-8.07
535.34	-15.50
535.68	-7.43
536.03	-1.94
536.37	-6.78
536.71	-18.40
537.06	-18.40
537.40	-5.17
537.74	-12.27
538.09	-11.30
538.43	-14.53
538.77	-14.20
539.12	1.61
539.46	5.49
539.80	-1.61
540.15	14.85
540.49	2.91
540.83	-15.50
541.18	37.77
541.52	38.42
541.86	27.12
542.20	14.53
542.55	10.65
542.89	21.63
543.23	44.23
543.58	2.26
543.92	4.84
544.26	7.75
544.60	27.12
544.95	19.69
545.29	17.76
545.63	24.54
545.97	23.24
546.32	27.76
546.66	20.34
547.00	3.55
547.34	17.11
547.68	12.27
548.03	9.36
548.37	0.97
548.71	-15.17
549.05	4.84
549.39	9.36
549.74	2.58
550.08	1.29
550.42	-10.65
550.76	-4.84
551.10	12.27
551.45	8.72
551.79	9.04
552.13	8.07
552.47	-4.84
552.81	-4.52
553.15	-3.23
553.50	-20.98
553.84	-27.12
554.18	-31.31
554.52	-40.68
554.86	-15.82
555.20	-7.75
555.54	-0.65
555.88	-8.39
556.23	-9.04
556.57	10.65
556.91	10.65
557.25	-2.58
557.59	-0.97
557.93	-14.20
558.27	7.75
558.61	-2.91
558.95	-4.52
559.29	21.63
559.64	20.02
559.98	7.75
560.32	9.68
560.66	8.72
561.00	21.31
561.34	15.82
561.68	-13.24
562.02	-22.92
562.36	-16.46
562.70	-0.65
563.04	-12.59
563.38	-11.30
563.72	-5.49
564.06	8.39
564.40	17.11
564.74	14.20
565.08	2.26
565.42	2.58
565.76	-1.29
566.10	-9.68
566.44	-19.37
566.78	-3.23
567.12	-0.32
567.46	0.32
567.80	0.97
568.14	5.49
568.48	3.23
568.82	-1.61
569.16	-26.15
569.50	-28.73
569.84	-41.65
570.18	9.68
570.52	-0.32
570.86	-1.61
571.20	10.65
571.54	20.98
571.88	32.93
572.22	57.14
572.55	27.44
572.89	26.80
573.23	10.33
573.57	4.52
573.91	10.65
574.25	0.97
574.59	-12.59
574.93	-35.83
575.27	-42.61
575.61	-37.77
575.94	-36.48
576.28	-36.80
576.62	-32.61
576.96	-39.06
577.30	-34.87
577.64	-8.72
577.98	10.01
578.32	22.60
578.65	9.68
578.99	10.01
579.33	-8.07
579.67	-3.23
580.01	-21.31
580.35	-33.57
580.68	-28.73
581.02	-27.12
581.36	-4.52
581.70	22.92
582.04	13.88
582.37	20.98
582.71	30.67
583.05	27.44
583.39	28.09
583.73	3.87
584.06	15.82
584.40	40.03
584.74	41.65
585.08	45.84
585.41	35.51
585.75	30.67
586.09	19.37
586.43	4.84
586.76	-16.14
587.10	-15.82
587.44	-15.17
587.78	-30.35
588.11	-22.92
588.45	-16.79
588.79	-28.09
589.13	-28.73
589.46	-46.17
589.80	-46.49
590.14	-39.39
590.47	-40.03
590.81	-39.39
591.15	-33.90
591.48	-24.86
591.82	0.32
592.16	1.94
592.50	13.24
592.83	11.62
593.17	10.98
593.51	26.80
593.84	30.67
594.18	15.17
594.51	9.36
594.85	16.79
595.19	22.60
595.52	34.54
595.86	36.16
596.20	20.98
596.53	11.94
596.87	16.14
597.21	12.27
597.54	9.68
597.88	-7.10
598.21	-14.85
598.55	1.61
598.89	20.34
599.22	-4.52
599.56	-23.89
599.89	-12.59
600.23	-8.07
600.57	-15.50
600.90	-23.24
601.24	-24.86
601.57	-3.23
601.91	9.36
602.24	-3.55
602.58	-21.63
602.91	-12.27
603.25	-6.13
603.58	-9.04
603.92	-7.75
604.26	0.00
604.59	12.91
604.93	19.05
605.26	0.97
605.60	-14.85
605.93	-18.72
606.27	-20.34
606.60	-12.91
606.94	-17.76
607.27	-11.94
607.61	-11.62
607.94	-7.43
608.28	2.58
608.61	-8.39
608.95	-25.50
609.28	-30.02
609.61	-19.69
609.95	10.98
610.28	3.55
610.62	4.52
610.95	4.20
611.29	2.26
611.62	-12.91
611.96	-11.94
612.29	-33.25
612.62	-20.34
612.96	-29.05
613.29	-29.38
613.63	-23.89
613.96	-3.87
614.29	-1.94
614.63	-7.43
614.96	-14.53
615.30	-31.64
615.63	-25.18
615.96	-23.24
616.30	-36.80
616.63	-34.87
616.97	-13.56
617.30	-10.98
617.63	18.08
617.97	30.99
618.30	15.82
618.63	23.89
618.97	23.89
619.30	15.17
619.63	7.10
619.97	-8.07
620.30	-29.38
620.63	-14.53
620.97	-6.46
621.30	-20.98
621.63	-30.02
621.97	-22.92
622.30	-6.13
622.63	-1.61
622.96	-15.82
623.30	-9.36
623.63	-1.61
623.96	-7.43
624.30	-6.78
624.63	-14.53
624.96	-18.08
625.29	-3.23
625.63	-30.35
625.96	-28.73
626.29	-20.98
626.62	-21.95
626.96	-25.50
627.29	-20.34
627.62	-24.21
627.95	9.04
628.28	12.27
628.62	16.79
628.95	24.54
629.28	26.80
629.61	32.61
629.95	35.83
630.28	20.98
630.61	13.24
630.94	-7.43
631.27	-6.78
631.60	-19.05
631.94	-20.02
632.27	-20.34
632.60	-31.31
632.93	-28.41
633.26	0.65
633.59	2.26
633.93	10.98
634.26	8.07
634.59	2.26
634.92	9.36
635.25	4.20
635.58	-12.59
635.91	-19.37
636.24	-15.82
636.58	-12.91
636.91	-16.46
637.24	-34.22
637.57	-28.73
637.90	-20.02
638.23	-34.22
638.56	-30.02
638.89	-34.54
639.22	-27.76
639.55	10.01
639.88	7.43
640.22	-1.29
640.55	10.33
640.88	-10.65
641.21	-4.84
641.54	-22.28
641.87	-51.01
642.20	-45.84
642.53	-48.10
642.86	-46.17
643.19	-27.44
643.52	-33.90
643.85	-14.20
644.18	-11.62
644.51	-4.84
644.84	12.59
645.17	16.14
645.50	11.94
645.83	1.29
646.16	3.23
646.49	-7.43
646.82	-8.07
647.15	-16.14
647.48	-24.54
647.81	-23.89
648.14	-15.17
648.47	-2.58
648.80	4.84
649.13	7.10
649.46	1.61
649.79	1.61
650.11	5.81
650.44	18.08
650.77	4.84
651.10	24.54
651.43	6.46
651.76	-8.07
652.09	-12.27
652.42	-12.91
652.75	-18.72
653.08	-21.31
653.41	-8.72
653.73	2.91
654.06	17.11
654.39	24.21
654.72	12.59
655.05	7.43
655.38	0.32
655.71	-21.31
656.04	-19.37
656.36	-19.37
656.69	-9.04
657.02	0.32
657.35	-1.94
657.68	4.20
658.01	-4.84
658.33	-6.78
658.66	-8.72
658.99	-21.63
659.32	-42.61
659.65	-40.35
659.97	-55.20
660.30	-44.87
660.63	-46.81
660.96	-42.29
661.29	-34.87
661.61	-21.63
661.94	-16.14
662.27	0.32
662.60	-3.87
662.92	-16.14
663.25	-25.18
663.58	-34.54
663.91	-10.65
664.23	8.39
664.56	0.97
664.89	7.43
665.22	19.37
665.54	28.41
665.87	52.62
666.20	32.28
666.53	15.82
666.85	19.37
667.18	12.59
667.51	19.05
667.83	20.66
668.16	9.68
668.49	11.62
668.81	17.11
669.14	23.57
669.47	27.44
669.79	26.15
670.12	36.48
670.45	24.54
670.77	30.99
671.10	33.57
671.43	37.45
